PE IR       SPECTRUM    SPECTRUM    ASCII       PEDS        1.60        
  -1
AANDE_V3.ASC
80/01/12
22:36:10.00
80/01/12
22:36:10.00
Admin

400.000000
4









502,2.19
LITAO3
MIR
KBR
70765
0.300000
1
4.000000
STRONG
RATIO
SPECTRUM


DOUBLE
4
BI DIRECTIONAL
2

0


#HDR
-1
-1
#GR
CM-1
%T
0.00002384185791015625
0.0
6000.000000
-2.000000
2801
8
100.827789
26.389312
#DATA
6000.000000	100.350189 
5998.000000	100.270843 
5996.000000	100.244140 
5994.000000	100.234222 
5992.000000	100.215148 
5990.000000	100.187683 
5988.000000	100.200653 
5986.000000	100.247192 
5984.000000	100.203704 
5982.000000	100.118255 
5980.000000	100.096893 
5978.000000	100.153350 
5976.000000	100.306701 
5974.000000	100.402832 
5972.000000	100.301361 
5970.000000	100.245666 
5968.000000	100.261688 
5966.000000	100.189208 
5964.000000	100.202178 
5962.000000	100.285339 
5960.000000	100.296783 
5958.000000	100.371551 
5956.000000	100.396728 
5954.000000	100.289916 
5952.000000	100.222778 
5950.000000	100.188446 
5948.000000	100.211334 
5946.000000	100.317382 
5944.000000	100.341796 
5942.000000	100.291442 
5940.000000	100.308227 
5938.000000	100.291442 
5936.000000	100.208282 
5934.000000	100.269317 
5932.000000	100.332641 
5930.000000	100.338745 
5928.000000	100.357818 
5926.000000	100.289916 
5924.000000	100.216674 
5922.000000	100.279235 
5920.000000	100.345611 
5918.000000	100.298309 
5916.000000	100.254821 
5914.000000	100.293731 
5912.000000	100.296020 
5910.000000	100.297546 
5908.000000	100.423431 
5906.000000	100.327301 
5904.000000	100.183105 
5902.000000	100.318145 
5900.000000	100.392913 
5898.000000	100.319671 
5896.000000	100.220489 
5894.000000	100.196075 
5892.000000	100.203704 
5890.000000	100.255584 
5888.000000	100.275421 
5886.000000	100.276947 
5884.000000	100.329589 
5882.000000	100.264739 
5880.000000	100.176239 
5878.000000	100.176239 
5876.000000	100.218200 
5874.000000	100.290679 
5872.000000	100.368499 
5870.000000	100.421905 
5868.000000	100.546264 
5866.000000	100.531005 
5864.000000	100.309753 
5862.000000	100.246429 
5860.000000	100.351715 
5858.000000	100.396728 
5856.000000	100.373840 
5854.000000	100.389862 
5852.000000	100.316619 
5850.000000	100.292968 
5848.000000	100.307464 
5846.000000	100.196838 
5844.000000	100.061035 
5842.000000	100.013732 
5840.000000	100.213623 
5838.000000	100.373840 
5836.000000	100.257110 
5834.000000	100.250244 
5832.000000	100.337219 
5830.000000	100.296020 
5828.000000	100.302124 
5826.000000	100.321960 
5824.000000	100.376892 
5822.000000	100.376892 
5820.000000	100.266265 
5818.000000	100.203704 
5816.000000	100.237274 
5814.000000	100.298309 
5812.000000	100.254058 
5810.000000	100.192260 
5808.000000	100.214385 
5806.000000	100.307464 
5804.000000	100.316619 
5802.000000	100.313568 
5800.000000	100.370025 
5798.000000	100.347137 
5796.000000	100.208282 
5794.000000	100.189971 
5792.000000	100.297546 
5790.000000	100.349426 
5788.000000	100.337219 
5786.000000	100.343322 
5784.000000	100.337219 
5782.000000	100.366973 
5780.000000	100.263977 
5778.000000	100.236511 
5776.000000	100.288391 
5774.000000	100.287628 
5772.000000	100.277709 
5770.000000	100.268554 
5768.000000	100.340270 
5766.000000	100.351715 
5764.000000	100.276947 
5762.000000	100.292968 
5760.000000	100.265502 
5758.000000	100.163269 
5756.000000	100.175476 
5754.000000	100.270843 
5752.000000	100.383758 
5750.000000	100.444793 
5748.000000	100.402832 
5746.000000	100.360107 
5744.000000	100.391387 
5742.000000	100.418853 
5740.000000	100.381469 
5738.000000	100.394439 
5736.000000	100.456237 
5734.000000	100.377655 
5732.000000	100.343322 
5730.000000	100.315856 
5728.000000	100.334930 
5726.000000	100.421142 
5724.000000	100.398254 
5722.000000	100.343322 
5720.000000	100.328063 
5718.000000	100.272369 
5716.000000	100.308227 
5714.000000	100.376892 
5712.000000	100.345611 
5710.000000	100.259399 
5708.000000	100.312042 
5706.000000	100.361633 
5704.000000	100.316619 
5702.000000	100.254821 
5700.000000	100.195312 
5698.000000	100.251007 
5696.000000	100.320434 
5694.000000	100.328826 
5692.000000	100.342559 
5690.000000	100.377655 
5688.000000	100.337219 
5686.000000	100.243377 
5684.000000	100.272369 
5682.000000	100.347900 
5680.000000	100.330352 
5678.000000	100.279235 
5676.000000	100.315856 
5674.000000	100.325775 
5672.000000	100.302886 
5670.000000	100.290679 
5668.000000	100.301361 
5666.000000	100.307464 
5664.000000	100.365447 
5662.000000	100.373840 
5660.000000	100.319671 
5658.000000	100.283813 
5656.000000	100.321960 
5654.000000	100.361633 
5652.000000	100.338745 
5650.000000	100.347137 
5648.000000	100.284576 
5646.000000	100.222778 
5644.000000	100.331115 
5642.000000	100.414276 
5640.000000	100.331878 
5638.000000	100.249481 
5636.000000	100.173187 
5634.000000	100.165557 
5632.000000	100.274658 
5630.000000	100.303649 
5628.000000	100.241088 
5626.000000	100.266265 
5624.000000	100.341796 
5622.000000	100.325775 
5620.000000	100.298309 
5618.000000	100.345611 
5616.000000	100.357818 
5614.000000	100.394439 
5612.000000	100.371551 
5610.000000	100.295257 
5608.000000	100.317382 
5606.000000	100.291442 
5604.000000	100.220489 
5602.000000	100.279235 
5600.000000	100.348663 
5598.000000	100.389099 
5596.000000	100.389099 
5594.000000	100.397491 
5592.000000	100.441741 
5590.000000	100.447845 
5588.000000	100.386047 
5586.000000	100.341796 
5584.000000	100.343322 
5582.000000	100.393676 
5580.000000	100.415039 
5578.000000	100.341033 
5576.000000	100.314331 
5574.000000	100.313568 
5572.000000	100.315093 
5570.000000	100.261688 
5568.000000	100.216674 
5566.000000	100.201416 
5564.000000	100.177001 
5562.000000	100.237274 
5560.000000	100.302886 
5558.000000	100.258636 
5556.000000	100.289154 
5554.000000	100.315093 
5552.000000	100.193023 
5550.000000	100.074768 
5548.000000	100.125885 
5546.000000	100.183868 
5544.000000	100.160980 
5542.000000	100.232696 
5540.000000	100.318908 
5538.000000	100.252532 
5536.000000	100.212860 
5534.000000	100.186157 
5532.000000	100.181579 
5530.000000	100.244903 
5528.000000	100.256347 
5526.000000	100.196075 
5524.000000	100.086212 
5522.000000	100.028991 
5520.000000	100.095367 
5518.000000	100.096130 
5516.000000	100.120544 
5514.000000	100.187683 
5512.000000	100.161743 
5510.000000	100.130462 
5508.000000	100.094604 
5506.000000	100.068664 
5504.000000	100.070190 
5502.000000	100.057220 
5500.000000	100.055694 
5498.000000	100.116729 
5496.000000	99.987030  
5494.000000	99.733734  
5492.000000	99.650573  
5490.000000	99.660491  
5488.000000	99.781036  
5486.000000	100.009155 
5484.000000	100.157165 
5482.000000	100.241851 
5480.000000	100.331878 
5478.000000	100.070953 
5476.000000	99.634552  
5474.000000	99.771881  
5472.000000	100.019073 
5470.000000	99.981689  
5468.000000	99.866485  
5466.000000	99.837493  
5464.000000	99.794006  
5462.000000	99.705505  
5460.000000	99.774169  
5458.000000	99.835205  
5456.000000	99.913024  
5454.000000	100.132751 
5452.000000	100.082397 
5450.000000	99.781036  
5448.000000	99.594116  
5446.000000	99.520111  
5444.000000	99.524688  
5442.000000	99.499511  
5440.000000	99.609375  
5438.000000	99.725341  
5436.000000	99.677276  
5434.000000	99.634552  
5432.000000	99.519348  
5430.000000	99.375152  
5428.000000	99.459075  
5426.000000	99.719238  
5424.000000	100.020599 
5422.000000	100.175476 
5420.000000	100.242614 
5418.000000	100.166320 
5416.000000	99.756622  
5414.000000	99.258422  
5412.000000	99.021148  
5410.000000	99.237823  
5408.000000	99.687957  
5406.000000	99.876403  
5404.000000	99.975585  
5402.000000	100.131225 
5400.000000	100.189971 
5398.000000	99.976348  
5396.000000	99.681091  
5394.000000	99.660491  
5392.000000	99.847412  
5390.000000	99.912261  
5388.000000	99.824523  
5386.000000	99.736022  
5384.000000	99.823760  
5382.000000	99.984741  
5380.000000	99.996948  
5378.000000	99.694824  
5376.000000	99.471282  
5374.000000	99.692535  
5372.000000	100.009155 
5370.000000	100.176239 
5368.000000	100.163269 
5366.000000	100.061798 
5364.000000	99.959564  
5362.000000	100.054168 
5360.000000	100.193786 
5358.000000	100.126647 
5356.000000	99.743652  
5354.000000	99.377441  
5352.000000	99.385070  
5350.000000	99.485778  
5348.000000	99.461364  
5346.000000	99.176025  
5344.000000	99.109649  
5342.000000	99.365234  
5340.000000	99.166870  
5338.000000	98.984527  
5336.000000	99.311828  
5334.000000	99.600219  
5332.000000	99.716186  
5330.000000	99.719238  
5328.000000	99.629211  
5326.000000	99.756622  
5324.000000	99.944305  
5322.000000	100.081634 
5320.000000	100.221252 
5318.000000	100.206756 
5316.000000	100.106811 
5314.000000	100.121307 
5312.000000	100.146484 
5310.000000	100.009155 
5308.000000	99.863433  
5306.000000	99.929046  
5304.000000	100.039672 
5302.000000	100.061035 
5300.000000	99.993896  
5298.000000	99.987792  
5296.000000	100.176239 
5294.000000	100.222015 
5292.000000	99.981689  
5290.000000	99.880218  
5288.000000	99.944305  
5286.000000	99.933624  
5284.000000	100.023651 
5282.000000	100.036621 
5280.000000	99.934387  
5278.000000	100.003814 
5276.000000	100.122070 
5274.000000	100.164031 
5272.000000	100.095367 
5270.000000	99.968719  
5268.000000	99.851989  
5266.000000	99.621582  
5264.000000	99.379730  
5262.000000	99.438476  
5260.000000	99.729919  
5258.000000	99.861907  
5256.000000	99.732971  
5254.000000	99.706268  
5252.000000	99.806213  
5250.000000	99.685668  
5248.000000	99.427795  
5246.000000	99.298858  
5244.000000	99.399566  
5242.000000	99.764251  
5240.000000	100.052642 
5238.000000	100.102233 
5236.000000	100.015258 
5234.000000	99.845123  
5232.000000	99.698638  
5230.000000	99.747467  
5228.000000	99.633026  
5226.000000	99.465942  
5224.000000	99.652862  
5222.000000	99.868011  
5220.000000	99.905395  
5218.000000	99.960327  
5216.000000	100.085449 
5214.000000	100.147247 
5212.000000	100.098419 
5210.000000	99.830627  
5208.000000	99.378204  
5206.000000	99.268341  
5204.000000	99.655914  
5202.000000	99.990844  
5200.000000	99.988555  
5198.000000	99.861145  
5196.000000	99.940490  
5194.000000	100.080871 
5192.000000	100.099945 
5190.000000	100.054931 
5188.000000	99.962615  
5186.000000	99.828338  
5184.000000	99.872589  
5182.000000	99.967956  
5180.000000	100.011444 
5178.000000	99.992370  
5176.000000	100.028991 
5174.000000	100.106048 
5172.000000	100.066375 
5170.000000	100.074005 
5168.000000	100.212860 
5166.000000	100.229644 
5164.000000	100.060272 
5162.000000	100.013732 
5160.000000	100.038146 
5158.000000	99.987030  
5156.000000	100.011444 
5154.000000	100.084686 
5152.000000	100.122070 
5150.000000	100.167846 
5148.000000	100.217437 
5146.000000	100.242614 
5144.000000	100.157165 
5142.000000	100.089263 
5140.000000	100.115203 
5138.000000	100.137329 
5136.000000	100.160980 
5134.000000	100.215148 
5132.000000	100.232696 
5130.000000	100.249481 
5128.000000	100.249481 
5126.000000	100.220489 
5124.000000	100.214385 
5122.000000	100.136566 
5120.000000	100.036621 
5118.000000	100.083160 
5116.000000	100.205230 
5114.000000	100.245666 
5112.000000	100.148773 
5110.000000	100.110626 
5108.000000	100.142669 
5106.000000	100.129699 
5104.000000	100.118255 
5102.000000	100.141906 
5100.000000	100.180816 
5098.000000	100.193023 
5096.000000	100.170898 
5094.000000	100.180053 
5092.000000	100.167083 
5090.000000	100.173187 
5088.000000	100.236511 
5086.000000	100.257110 
5084.000000	100.207519 
5082.000000	100.147247 
5080.000000	100.122833 
5078.000000	100.157928 
5076.000000	100.193786 
5074.000000	100.211334 
5072.000000	100.217437 
5070.000000	100.190734 
5068.000000	100.212097 
5066.000000	100.222778 
5064.000000	100.248718 
5062.000000	100.312042 
5060.000000	100.262451 
5058.000000	100.236511 
5056.000000	100.245666 
5054.000000	100.196075 
5052.000000	100.157928 
5050.000000	100.180816 
5048.000000	100.254058 
5046.000000	100.262451 
5044.000000	100.234222 
5042.000000	100.225830 
5040.000000	100.192260 
5038.000000	100.149536 
5036.000000	100.146484 
5034.000000	100.161743 
5032.000000	100.202178 
5030.000000	100.249481 
5028.000000	100.215148 
5026.000000	100.212860 
5024.000000	100.225830 
5022.000000	100.175476 
5020.000000	100.202941 
5018.000000	100.254058 
5016.000000	100.229644 
5014.000000	100.198364 
5012.000000	100.218200 
5010.000000	100.212097 
5008.000000	100.163269 
5006.000000	100.182342 
5004.000000	100.154876 
5002.000000	100.116729 
5000.000000	100.135040 
4998.000000	100.106811 
4996.000000	100.040435 
4994.000000	100.003814 
4992.000000	100.002288 
4990.000000	99.981689  
4988.000000	99.948120  
4986.000000	99.964904  
4984.000000	100.018310 
4982.000000	100.059509 
4980.000000	100.110626 
4978.000000	100.128936 
4976.000000	100.137329 
4974.000000	100.144958 
4972.000000	100.154113 
4970.000000	100.095367 
4968.000000	99.987030  
4966.000000	100.002288 
4964.000000	100.045013 
4962.000000	100.062561 
4960.000000	100.093841 
4958.000000	100.109100 
4956.000000	100.120544 
4954.000000	100.145721 
4952.000000	100.135040 
4950.000000	100.099182 
4948.000000	100.096130 
4946.000000	100.104522 
4944.000000	100.119781 
4942.000000	100.138092 
4940.000000	100.142669 
4938.000000	100.136566 
4936.000000	100.137329 
4934.000000	100.149536 
4932.000000	100.159454 
4930.000000	100.178527 
4928.000000	100.164794 
4926.000000	100.160217 
4924.000000	100.148010 
4922.000000	100.124359 
4920.000000	100.096130 
4918.000000	100.100708 
4916.000000	100.109863 
4914.000000	100.127410 
4912.000000	100.131988 
4910.000000	100.176239 
4908.000000	100.236511 
4906.000000	100.245666 
4904.000000	100.211334 
4902.000000	100.215148 
4900.000000	100.241851 
4898.000000	100.235748 
4896.000000	100.216674 
4894.000000	100.184631 
4892.000000	100.130462 
4890.000000	100.126647 
4888.000000	100.171661 
4886.000000	100.196075 
4884.000000	100.163269 
4882.000000	100.102996 
4880.000000	100.058746 
4878.000000	100.041961 
4876.000000	100.086975 
4874.000000	100.170898 
4872.000000	100.180816 
4870.000000	100.123596 
4868.000000	100.071716 
4866.000000	100.061035 
4864.000000	100.102233 
4862.000000	100.166320 
4860.000000	100.183868 
4858.000000	100.141906 
4856.000000	100.122070 
4854.000000	100.138092 
4852.000000	100.139617 
4850.000000	100.124359 
4848.000000	100.083923 
4846.000000	100.067901 
4844.000000	100.102996 
4842.000000	100.129699 
4840.000000	100.110626 
4838.000000	100.072479 
4836.000000	100.106048 
4834.000000	100.154876 
4832.000000	100.157928 
4830.000000	100.164794 
4828.000000	100.163269 
4826.000000	100.154876 
4824.000000	100.151062 
4822.000000	100.135803 
4820.000000	100.110626 
4818.000000	100.095367 
4816.000000	100.125122 
4814.000000	100.162506 
4812.000000	100.184631 
4810.000000	100.181579 
4808.000000	100.106048 
4806.000000	100.105285 
4804.000000	100.164794 
4802.000000	100.167846 
4800.000000	100.154113 
4798.000000	100.134277 
4796.000000	100.094604 
4794.000000	100.090026 
4792.000000	100.113677 
4790.000000	100.100708 
4788.000000	100.073242 
4786.000000	100.077819 
4784.000000	100.112152 
4782.000000	100.132751 
4780.000000	100.138854 
4778.000000	100.168609 
4776.000000	100.148773 
4774.000000	100.115966 
4772.000000	100.127410 
4770.000000	100.124359 
4768.000000	100.142669 
4766.000000	100.160217 
4764.000000	100.153350 
4762.000000	100.130462 
4760.000000	100.096893 
4758.000000	100.090789 
4756.000000	100.102233 
4754.000000	100.112915 
4752.000000	100.099182 
4750.000000	100.086975 
4748.000000	100.083923 
4746.000000	100.057983 
4744.000000	100.059509 
4742.000000	100.059509 
4740.000000	100.046539 
4738.000000	100.083160 
4736.000000	100.087738 
4734.000000	100.062561 
4732.000000	100.031280 
4730.000000	100.019073 
4728.000000	100.034332 
4726.000000	100.085449 
4724.000000	100.128936 
4722.000000	100.143432 
4720.000000	100.108337 
4718.000000	100.067138 
4716.000000	100.072479 
4714.000000	100.084686 
4712.000000	100.057983 
4710.000000	100.043487 
4708.000000	100.060272 
4706.000000	100.037384 
4704.000000	100.035858 
4702.000000	100.061798 
4700.000000	100.042724 
4698.000000	100.026702 
4696.000000	100.040435 
4694.000000	100.071716 
4692.000000	100.074768 
4690.000000	100.079345 
4688.000000	100.103759 
4686.000000	100.096130 
4684.000000	100.081634 
4682.000000	100.058746 
4680.000000	100.074005 
4678.000000	100.092315 
4676.000000	100.055694 
4674.000000	100.012969 
4672.000000	100.003814 
4670.000000	100.042724 
4668.000000	100.070953 
4666.000000	100.036621 
4664.000000	100.020599 
4662.000000	100.022125 
4660.000000	99.992370  
4658.000000	99.979400  
4656.000000	100.017547 
4654.000000	100.050354 
4652.000000	100.047302 
4650.000000	100.046539 
4648.000000	100.031280 
4646.000000	100.001525 
4644.000000	100.005340 
4642.000000	100.055694 
4640.000000	100.133514 
4638.000000	100.115203 
4636.000000	100.082397 
4634.000000	100.053405 
4632.000000	100.008392 
4630.000000	99.973297  
4628.000000	99.986267  
4626.000000	100.000000 
4624.000000	100.016021 
4622.000000	100.038146 
4620.000000	100.045013 
4618.000000	100.019836 
4616.000000	100.001525 
4614.000000	100.036621 
4612.000000	100.042724 
4610.000000	100.017547 
4608.000000	100.078582 
4606.000000	100.131225 
4604.000000	100.061798 
4602.000000	100.009918 
4600.000000	100.056457 
4598.000000	100.106811 
4596.000000	100.112152 
4594.000000	100.067138 
4592.000000	100.034332 
4590.000000	100.059509 
4588.000000	100.028991 
4586.000000	99.984741  
4584.000000	99.996948  
4582.000000	100.049591 
4580.000000	100.081634 
4578.000000	100.116729 
4576.000000	100.108337 
4574.000000	100.030517 
4572.000000	99.994659  
4570.000000	100.017547 
4568.000000	100.048065 
4566.000000	100.081634 
4564.000000	100.081634 
4562.000000	100.073242 
4560.000000	100.057983 
4558.000000	100.035095 
4556.000000	100.048065 
4554.000000	100.069427 
4552.000000	100.040435 
4550.000000	100.023651 
4548.000000	100.049591 
4546.000000	100.028991 
4544.000000	100.019073 
4542.000000	100.061798 
4540.000000	100.090789 
4538.000000	100.062561 
4536.000000	100.024414 
4534.000000	100.025177 
4532.000000	100.025939 
4530.000000	100.031280 
4528.000000	100.072479 
4526.000000	100.077056 
4524.000000	100.089263 
4522.000000	100.088500 
4520.000000	100.056457 
4518.000000	100.069427 
4516.000000	100.068664 
4514.000000	100.060272 
4512.000000	100.068664 
4510.000000	100.064086 
4508.000000	100.063323 
4506.000000	100.083160 
4504.000000	100.112152 
4502.000000	100.102233 
4500.000000	100.059509 
4498.000000	100.067138 
4496.000000	100.077056 
4494.000000	100.024414 
4492.000000	100.005340 
4490.000000	100.068664 
4488.000000	100.090026 
4486.000000	100.058746 
4484.000000	99.999237  
4482.000000	99.977111  
4480.000000	100.005340 
4478.000000	100.024414 
4476.000000	100.035858 
4474.000000	100.054931 
4472.000000	100.037384 
4470.000000	100.041961 
4468.000000	100.057220 
4466.000000	100.061035 
4464.000000	100.057220 
4462.000000	100.036621 
4460.000000	100.031280 
4458.000000	100.059509 
4456.000000	100.061798 
4454.000000	100.046539 
4452.000000	100.071716 
4450.000000	100.102233 
4448.000000	100.112915 
4446.000000	100.091552 
4444.000000	100.071716 
4442.000000	100.079345 
4440.000000	100.067901 
4438.000000	100.037384 
4436.000000	100.030517 
4434.000000	100.056457 
4432.000000	100.069427 
4430.000000	100.043487 
4428.000000	100.066375 
4426.000000	100.091552 
4424.000000	100.077056 
4422.000000	100.045776 
4420.000000	100.012207 
4418.000000	100.036621 
4416.000000	100.048828 
4414.000000	100.029754 
4412.000000	100.033569 
4410.000000	100.023651 
4408.000000	100.018310 
4406.000000	100.036621 
4404.000000	100.041961 
4402.000000	100.055694 
4400.000000	100.061798 
4398.000000	100.068664 
4396.000000	100.076293 
4394.000000	100.057983 
4392.000000	100.051116 
4390.000000	100.062561 
4388.000000	100.055694 
4386.000000	100.038909 
4384.000000	100.044250 
4382.000000	100.048828 
4380.000000	100.036621 
4378.000000	100.054931 
4376.000000	100.095367 
4374.000000	100.115203 
4372.000000	100.091552 
4370.000000	100.035858 
4368.000000	100.009155 
4366.000000	100.032806 
4364.000000	100.032043 
4362.000000	100.051116 
4360.000000	100.075531 
4358.000000	100.074005 
4356.000000	100.032806 
4354.000000	100.031280 
4352.000000	100.054931 
4350.000000	100.045013 
4348.000000	100.049591 
4346.000000	100.083923 
4344.000000	100.093078 
4342.000000	100.087738 
4340.000000	100.065612 
4338.000000	100.060272 
4336.000000	100.062561 
4334.000000	100.041961 
4332.000000	100.035858 
4330.000000	100.041198 
4328.000000	100.050354 
4326.000000	100.053405 
4324.000000	100.047302 
4322.000000	100.038909 
4320.000000	100.045013 
4318.000000	100.072479 
4316.000000	100.066375 
4314.000000	100.025939 
4312.000000	100.026702 
4310.000000	100.048828 
4308.000000	100.038146 
4306.000000	100.026702 
4304.000000	100.031280 
4302.000000	100.032806 
4300.000000	100.007629 
4298.000000	100.019073 
4296.000000	100.048828 
4294.000000	100.023651 
4292.000000	100.009918 
4290.000000	100.045013 
4288.000000	100.056457 
4286.000000	100.045013 
4284.000000	100.041961 
4282.000000	100.064086 
4280.000000	100.099182 
4278.000000	100.086975 
4276.000000	100.051879 
4274.000000	100.043487 
4272.000000	100.035095 
4270.000000	100.019073 
4268.000000	100.041198 
4266.000000	100.052642 
4264.000000	100.038146 
4262.000000	100.052642 
4260.000000	100.045013 
4258.000000	100.040435 
4256.000000	100.039672 
4254.000000	100.006103 
4252.000000	100.003814 
4250.000000	100.039672 
4248.000000	100.049591 
4246.000000	100.051879 
4244.000000	100.054168 
4242.000000	100.038909 
4240.000000	100.012969 
4238.000000	99.990081  
4236.000000	100.013732 
4234.000000	100.054168 
4232.000000	100.033569 
4230.000000	100.002288 
4228.000000	100.019073 
4226.000000	100.050354 
4224.000000	100.036621 
4222.000000	100.004577 
4220.000000	99.999237  
4218.000000	100.025939 
4216.000000	100.044250 
4214.000000	100.053405 
4212.000000	100.067901 
4210.000000	100.058746 
4208.000000	100.057983 
4206.000000	100.046539 
4204.000000	100.025939 
4202.000000	100.029754 
4200.000000	100.064086 
4198.000000	100.051116 
4196.000000	100.024414 
4194.000000	100.022125 
4192.000000	100.029754 
4190.000000	100.032806 
4188.000000	100.048065 
4186.000000	100.056457 
4184.000000	100.031280 
4182.000000	100.006103 
4180.000000	100.000000 
4178.000000	100.000762 
4176.000000	99.996185  
4174.000000	100.012969 
4172.000000	100.036621 
4170.000000	100.030517 
4168.000000	100.032043 
4166.000000	100.051879 
4164.000000	100.059509 
4162.000000	100.045776 
4160.000000	100.019836 
4158.000000	99.999237  
4156.000000	99.995422  
4154.000000	99.986267  
4152.000000	100.012969 
4150.000000	100.047302 
4148.000000	100.025939 
4146.000000	100.008392 
4144.000000	100.011444 
4142.000000	99.972534  
4140.000000	99.950408  
4138.000000	99.990081  
4136.000000	100.000762 
4134.000000	99.998474  
4132.000000	100.014495 
4130.000000	100.035095 
4128.000000	100.045013 
4126.000000	100.031280 
4124.000000	100.012207 
4122.000000	100.012207 
4120.000000	100.024414 
4118.000000	100.029754 
4116.000000	100.027465 
4114.000000	100.018310 
4112.000000	100.017547 
4110.000000	100.014495 
4108.000000	99.989318  
4106.000000	99.942016  
4104.000000	99.945831  
4102.000000	99.998474  
4100.000000	100.033569 
4098.000000	100.046539 
4096.000000	100.063323 
4094.000000	100.046539 
4092.000000	100.004577 
4090.000000	99.970245  
4088.000000	99.954986  
4086.000000	99.960327  
4084.000000	99.987030  
4082.000000	100.000762 
4080.000000	99.985504  
4078.000000	99.988555  
4076.000000	100.016784 
4074.000000	100.006866 
4072.000000	99.997711  
4070.000000	100.019836 
4068.000000	100.046539 
4066.000000	100.064849 
4064.000000	100.066375 
4062.000000	100.048828 
4060.000000	100.028991 
4058.000000	100.012207 
4056.000000	100.005340 
4054.000000	100.006866 
4052.000000	99.987792  
4050.000000	99.979400  
4048.000000	99.967193  
4046.000000	99.889373  
4044.000000	99.863433  
4042.000000	99.948120  
4040.000000	100.012969 
4038.000000	100.009155 
4036.000000	99.982452  
4034.000000	99.978637  
4032.000000	99.977111  
4030.000000	99.983215  
4028.000000	99.964141  
4026.000000	99.909973  
4024.000000	99.924468  
4022.000000	99.944305  
4020.000000	99.930572  
4018.000000	99.942779  
4016.000000	99.963378  
4014.000000	99.976348  
4012.000000	99.977111  
4010.000000	99.922180  
4008.000000	99.884796  
4006.000000	99.923706  
4004.000000	99.977111  
4002.000000	100.009918 
4000.000000	100.019073 
3998.000000	99.988555  
3996.000000	99.917602  
3994.000000	99.866485  
3992.000000	99.831390  
3990.000000	99.838256  
3988.000000	99.894714  
3986.000000	99.933624  
3984.000000	99.933624  
3982.000000	99.894714  
3980.000000	99.911499  
3978.000000	99.879455  
3976.000000	99.750518  
3974.000000	99.713134  
3972.000000	99.739837  
3970.000000	99.758148  
3968.000000	99.831390  
3966.000000	99.880218  
3964.000000	99.802398  
3962.000000	99.716186  
3960.000000	99.720001  
3958.000000	99.723815  
3956.000000	99.727630  
3954.000000	99.703216  
3952.000000	99.517822  
3950.000000	99.214172  
3948.000000	99.198913  
3946.000000	99.308776  
3944.000000	99.168395  
3942.000000	99.257659  
3940.000000	99.566650  
3938.000000	99.733734  
3936.000000	99.700927  
3934.000000	99.327850  
3932.000000	98.906707  
3930.000000	98.969268  
3928.000000	99.239349  
3926.000000	99.069213  
3924.000000	98.933410  
3922.000000	99.105072  
3920.000000	99.060058  
3918.000000	98.899078  
3916.000000	99.104309  
3914.000000	99.571228  
3912.000000	99.844360  
3910.000000	99.866485  
3908.000000	99.468231  
3906.000000	98.503112  
3904.000000	97.531127  
3902.000000	97.325134  
3900.000000	97.695922  
3898.000000	98.475646  
3896.000000	99.002075  
3894.000000	98.776245  
3892.000000	98.356628  
3890.000000	98.703765  
3888.000000	98.880767  
3886.000000	98.500823  
3884.000000	98.300170  
3882.000000	98.083496  
3880.000000	98.351287  
3878.000000	98.995971  
3876.000000	98.866271  
3874.000000	98.245239  
3872.000000	97.678375  
3870.000000	97.368621  
3868.000000	97.839355  
3866.000000	97.734832  
3864.000000	97.483062  
3862.000000	98.064422  
3860.000000	98.677062  
3858.000000	98.503112  
3856.000000	97.586059  
3854.000000	96.186065  
3852.000000	96.404266  
3850.000000	97.905731  
3848.000000	98.845672  
3846.000000	98.928070  
3844.000000	98.402404  
3842.000000	97.617340  
3840.000000	96.657562  
3838.000000	96.343231  
3836.000000	97.039031  
3834.000000	97.718048  
3832.000000	98.180389  
3830.000000	98.595428  
3828.000000	98.536682  
3826.000000	98.365783  
3824.000000	98.022460  
3822.000000	97.044372  
3820.000000	96.733856  
3818.000000	97.145843  
3816.000000	97.640991  
3814.000000	98.674011  
3812.000000	99.325561  
3810.000000	99.243927  
3808.000000	98.564147  
3806.000000	98.116302  
3804.000000	97.705841  
3802.000000	96.949005  
3800.000000	97.220611  
3798.000000	97.784423  
3796.000000	98.457336  
3794.000000	99.270629  
3792.000000	99.670410  
3790.000000	99.748992  
3788.000000	99.565124  
3786.000000	99.125671  
3784.000000	99.038696  
3782.000000	99.091339  
3780.000000	98.830413  
3778.000000	99.021148  
3776.000000	99.505615  
3774.000000	99.645996  
3772.000000	99.176788  
3770.000000	98.561859  
3768.000000	98.494720  
3766.000000	98.572540  
3764.000000	98.863220  
3762.000000	98.836517  
3760.000000	98.251342  
3758.000000	97.904968  
3756.000000	97.887420  
3754.000000	97.305297  
3752.000000	95.760345  
3750.000000	94.800567  
3748.000000	95.172119  
3746.000000	95.209503  
3744.000000	95.102691  
3742.000000	95.056152  
3740.000000	94.476318  
3738.000000	93.080139  
3736.000000	90.944671  
3734.000000	90.019989  
3732.000000	90.598297  
3730.000000	90.980529  
3728.000000	90.612030  
3726.000000	90.264892  
3724.000000	90.640258  
3722.000000	91.807556  
3720.000000	93.539428  
3718.000000	95.435333  
3716.000000	96.687316  
3714.000000	96.363830  
3712.000000	94.245147  
3710.000000	92.782592  
3708.000000	93.329620  
3706.000000	93.816375  
3704.000000	93.739318  
3702.000000	93.785858  
3700.000000	94.187164  
3698.000000	94.491577  
3696.000000	94.715118  
3694.000000	94.682312  
3692.000000	94.107818  
3690.000000	93.853759  
3688.000000	95.063781  
3686.000000	96.471405  
3684.000000	97.326660  
3682.000000	97.571563  
3680.000000	97.206878  
3678.000000	96.368408  
3676.000000	95.509338  
3674.000000	96.273040  
3672.000000	96.658325  
3670.000000	96.601104  
3668.000000	97.832489  
3666.000000	98.986816  
3664.000000	99.478912  
3662.000000	99.572753  
3660.000000	99.425506  
3658.000000	98.957824  
3656.000000	98.544311  
3654.000000	98.487854  
3652.000000	97.602081  
3650.000000	95.667266  
3648.000000	95.307922  
3646.000000	97.008514  
3644.000000	97.936248  
3642.000000	98.046875  
3640.000000	97.837066  
3638.000000	97.380828  
3636.000000	96.666717  
3634.000000	95.638275  
3632.000000	94.550323  
3630.000000	93.166351  
3628.000000	92.551422  
3626.000000	93.452453  
3624.000000	94.194793  
3622.000000	94.496154  
3620.000000	94.546508  
3618.000000	94.988250  
3616.000000	95.706939  
3614.000000	96.236419  
3612.000000	96.662139  
3610.000000	96.234130  
3608.000000	95.404052  
3606.000000	95.527648  
3604.000000	95.676422  
3602.000000	95.150756  
3600.000000	94.700622  
3598.000000	94.842529  
3596.000000	94.849395  
3594.000000	94.959259  
3592.000000	95.628356  
3590.000000	95.902252  
3588.000000	95.645141  
3586.000000	96.202087  
3584.000000	97.235870  
3582.000000	97.897338  
3580.000000	98.269653  
3578.000000	98.484039  
3576.000000	98.621368  
3574.000000	98.802185  
3572.000000	98.863983  
3570.000000	98.358154  
3568.000000	97.180938  
3566.000000	96.845245  
3564.000000	97.769165  
3562.000000	98.481750  
3560.000000	98.888397  
3558.000000	99.234008  
3556.000000	99.366760  
3554.000000	99.124145  
3552.000000	98.994445  
3550.000000	99.112701  
3548.000000	98.898315  
3546.000000	98.568725  
3544.000000	98.783874  
3542.000000	99.376678  
3540.000000	99.720764  
3538.000000	99.659729  
3536.000000	99.580383  
3534.000000	99.730682  
3532.000000	99.680328  
3530.000000	99.306488  
3528.000000	98.962402  
3526.000000	98.899078  
3524.000000	98.947906  
3522.000000	99.224090  
3520.000000	99.575805  
3518.000000	99.781036  
3516.000000	99.922180  
3514.000000	99.925994  
3512.000000	99.704742  
3510.000000	99.486541  
3508.000000	99.559783  
3506.000000	99.531555  
3504.000000	99.215698  
3502.000000	99.219512  
3500.000000	99.567413  
3498.000000	99.723815  
3496.000000	99.762725  
3494.000000	99.875640  
3492.000000	99.956512  
3490.000000	99.887847  
3488.000000	99.768829  
3486.000000	99.810028  
3484.000000	99.760437  
3482.000000	99.609375  
3480.000000	99.748992  
3478.000000	99.929046  
3476.000000	99.923706  
3474.000000	99.920654  
3472.000000	99.987792  
3470.000000	99.996185  
3468.000000	99.949645  
3466.000000	99.939727  
3464.000000	99.890899  
3462.000000	99.830627  
3460.000000	99.880981  
3458.000000	99.967956  
3456.000000	100.044250 
3454.000000	100.100708 
3452.000000	100.107574 
3450.000000	99.977111  
3448.000000	99.669647  
3446.000000	99.603271  
3444.000000	99.734497  
3442.000000	99.835205  
3440.000000	99.940490  
3438.000000	100.028228 
3436.000000	100.086212 
3434.000000	100.071716 
3432.000000	100.028228 
3430.000000	100.019073 
3428.000000	100.048828 
3426.000000	100.047302 
3424.000000	99.944305  
3422.000000	99.786376  
3420.000000	99.768829  
3418.000000	99.922943  
3416.000000	100.038146 
3414.000000	100.076293 
3412.000000	100.115966 
3410.000000	100.107574 
3408.000000	100.065612 
3406.000000	100.063323 
3404.000000	100.041198 
3402.000000	100.020599 
3400.000000	100.003814 
3398.000000	99.953460  
3396.000000	99.927520  
3394.000000	99.877929  
3392.000000	99.895477  
3390.000000	99.996948  
3388.000000	100.028228 
3386.000000	99.980163  
3384.000000	99.964141  
3382.000000	100.035858 
3380.000000	100.083160 
3378.000000	100.071716 
3376.000000	100.063323 
3374.000000	100.074005 
3372.000000	100.067901 
3370.000000	100.016784 
3368.000000	99.960327  
3366.000000	99.939727  
3364.000000	99.929046  
3362.000000	99.956512  
3360.000000	99.990081  
3358.000000	100.002288 
3356.000000	99.996185  
3354.000000	100.005340 
3352.000000	100.064849 
3350.000000	100.118255 
3348.000000	100.130462 
3346.000000	100.115203 
3344.000000	100.070953 
3342.000000	100.045013 
3340.000000	100.034332 
3338.000000	99.994659  
3336.000000	99.977874  
3334.000000	100.041198 
3332.000000	100.083923 
3330.000000	100.088500 
3328.000000	100.043487 
3326.000000	100.019073 
3324.000000	100.027465 
3322.000000	100.064849 
3320.000000	100.099182 
3318.000000	100.106048 
3316.000000	100.093841 
3314.000000	100.041198 
3312.000000	99.988555  
3310.000000	99.971008  
3308.000000	99.984741  
3306.000000	100.038909 
3304.000000	100.077819 
3302.000000	100.087738 
3300.000000	100.094604 
3298.000000	100.070190 
3296.000000	100.040435 
3294.000000	100.022888 
3292.000000	100.009155 
3290.000000	100.019073 
3288.000000	100.038146 
3286.000000	100.054931 
3284.000000	100.051116 
3282.000000	100.047302 
3280.000000	100.048065 
3278.000000	100.001525 
3276.000000	99.941253  
3274.000000	99.938964  
3272.000000	99.990844  
3270.000000	100.049591 
3268.000000	100.074768 
3266.000000	100.069427 
3264.000000	100.070190 
3262.000000	100.070953 
3260.000000	100.082397 
3258.000000	100.067901 
3256.000000	100.011444 
3254.000000	99.983978  
3252.000000	100.034332 
3250.000000	100.080871 
3248.000000	100.056457 
3246.000000	99.985504  
3244.000000	99.983978  
3242.000000	100.046539 
3240.000000	100.052642 
3238.000000	100.025939 
3236.000000	100.047302 
3234.000000	100.064086 
3232.000000	100.035858 
3230.000000	100.022125 
3228.000000	100.011444 
3226.000000	100.043487 
3224.000000	100.091552 
3222.000000	100.061798 
3220.000000	100.012207 
3218.000000	100.001525 
3216.000000	99.990081  
3214.000000	99.974822  
3212.000000	100.003051 
3210.000000	100.022125 
3208.000000	100.051116 
3206.000000	100.077819 
3204.000000	100.080871 
3202.000000	100.077819 
3200.000000	100.045776 
3198.000000	99.995422  
3196.000000	100.000000 
3194.000000	100.054168 
3192.000000	100.096893 
3190.000000	100.121307 
3188.000000	100.102233 
3186.000000	100.049591 
3184.000000	100.054168 
3182.000000	100.075531 
3180.000000	100.021362 
3178.000000	99.982452  
3176.000000	100.036621 
3174.000000	100.089263 
3172.000000	100.076293 
3170.000000	100.065612 
3168.000000	100.075531 
3166.000000	100.082397 
3164.000000	100.100708 
3162.000000	100.111389 
3160.000000	100.114440 
3158.000000	100.112915 
3156.000000	100.112152 
3154.000000	100.110626 
3152.000000	100.115966 
3150.000000	100.106811 
3148.000000	100.101470 
3146.000000	100.111389 
3144.000000	100.103759 
3142.000000	100.083923 
3140.000000	100.080871 
3138.000000	100.096893 
3136.000000	100.086975 
3134.000000	100.036621 
3132.000000	100.025177 
3130.000000	100.052642 
3128.000000	100.054931 
3126.000000	100.035095 
3124.000000	99.998474  
3122.000000	99.959564  
3120.000000	99.967193  
3118.000000	99.956512  
3116.000000	99.935913  
3114.000000	99.981689  
3112.000000	100.033569 
3110.000000	100.066375 
3108.000000	100.077819 
3106.000000	100.081634 
3104.000000	100.044250 
3102.000000	99.974822  
3100.000000	99.972534  
3098.000000	99.989318  
3096.000000	99.960327  
3094.000000	100.005340 
3092.000000	100.083923 
3090.000000	100.102996 
3088.000000	100.098419 
3086.000000	100.100708 
3084.000000	100.069427 
3082.000000	99.995422  
3080.000000	99.947357  
3078.000000	99.987030  
3076.000000	100.057220 
3074.000000	100.088500 
3072.000000	100.115203 
3070.000000	100.107574 
3068.000000	100.027465 
3066.000000	99.967956  
3064.000000	99.980163  
3062.000000	100.031280 
3060.000000	100.050354 
3058.000000	100.015258 
3056.000000	99.992370  
3054.000000	100.058746 
3052.000000	100.108337 
3050.000000	100.083923 
3048.000000	100.075531 
3046.000000	100.117492 
3044.000000	100.141906 
3042.000000	100.145721 
3040.000000	100.145721 
3038.000000	100.132751 
3036.000000	100.090026 
3034.000000	100.011444 
3032.000000	99.936676  
3030.000000	99.981689  
3028.000000	100.078582 
3026.000000	100.102996 
3024.000000	100.119018 
3022.000000	100.144958 
3020.000000	100.144195 
3018.000000	100.113677 
3016.000000	100.070953 
3014.000000	100.049591 
3012.000000	100.037384 
3010.000000	100.040435 
3008.000000	100.080108 
3006.000000	100.084686 
3004.000000	100.067138 
3002.000000	100.104522 
3000.000000	100.120544 
2998.000000	100.106048 
2996.000000	100.102233 
2994.000000	100.106048 
2992.000000	100.115203 
2990.000000	100.106811 
2988.000000	100.087738 
2986.000000	100.094604 
2984.000000	100.108337 
2982.000000	100.107574 
2980.000000	100.095367 
2978.000000	100.091552 
2976.000000	100.097656 
2974.000000	100.122833 
2972.000000	100.166320 
2970.000000	100.179290 
2968.000000	100.154113 
2966.000000	100.120544 
2964.000000	100.111389 
2962.000000	100.125122 
2960.000000	100.128936 
2958.000000	100.119018 
2956.000000	100.100708 
2954.000000	100.081634 
2952.000000	100.087738 
2950.000000	100.106048 
2948.000000	100.134277 
2946.000000	100.129699 
2944.000000	100.120544 
2942.000000	100.128936 
2940.000000	100.130462 
2938.000000	100.137329 
2936.000000	100.149536 
2934.000000	100.148773 
2932.000000	100.137329 
2930.000000	100.125122 
2928.000000	100.134277 
2926.000000	100.130462 
2924.000000	100.136566 
2922.000000	100.161743 
2920.000000	100.164031 
2918.000000	100.151062 
2916.000000	100.152587 
2914.000000	100.154876 
2912.000000	100.147247 
2910.000000	100.148773 
2908.000000	100.148773 
2906.000000	100.152587 
2904.000000	100.146484 
2902.000000	100.144195 
2900.000000	100.173187 
2898.000000	100.177764 
2896.000000	100.162506 
2894.000000	100.174713 
2892.000000	100.198364 
2890.000000	100.185394 
2888.000000	100.158691 
2886.000000	100.170135 
2884.000000	100.179290 
2882.000000	100.173187 
2880.000000	100.167083 
2878.000000	100.173950 
2876.000000	100.173950 
2874.000000	100.177001 
2872.000000	100.186920 
2870.000000	100.177001 
2868.000000	100.168609 
2866.000000	100.160980 
2864.000000	100.160217 
2862.000000	100.170898 
2860.000000	100.158691 
2858.000000	100.147247 
2856.000000	100.154113 
2854.000000	100.157165 
2852.000000	100.170898 
2850.000000	100.180816 
2848.000000	100.170898 
2846.000000	100.167846 
2844.000000	100.159454 
2842.000000	100.151062 
2840.000000	100.181579 
2838.000000	100.186157 
2836.000000	100.163269 
2834.000000	100.156402 
2832.000000	100.157928 
2830.000000	100.170135 
2828.000000	100.162506 
2826.000000	100.143432 
2824.000000	100.146484 
2822.000000	100.167083 
2820.000000	100.181579 
2818.000000	100.183868 
2816.000000	100.167846 
2814.000000	100.154876 
2812.000000	100.167846 
2810.000000	100.181579 
2808.000000	100.174713 
2806.000000	100.154876 
2804.000000	100.153350 
2802.000000	100.165557 
2800.000000	100.144195 
2798.000000	100.119781 
2796.000000	100.134277 
2794.000000	100.147247 
2792.000000	100.152587 
2790.000000	100.160217 
2788.000000	100.154113 
2786.000000	100.172424 
2784.000000	100.180053 
2782.000000	100.173950 
2780.000000	100.184631 
2778.000000	100.171661 
2776.000000	100.146484 
2774.000000	100.155639 
2772.000000	100.178527 
2770.000000	100.168609 
2768.000000	100.158691 
2766.000000	100.173950 
2764.000000	100.178527 
2762.000000	100.164794 
2760.000000	100.147247 
2758.000000	100.135803 
2756.000000	100.128936 
2754.000000	100.129699 
2752.000000	100.132751 
2750.000000	100.145721 
2748.000000	100.160980 
2746.000000	100.148773 
2744.000000	100.147247 
2742.000000	100.165557 
2740.000000	100.180816 
2738.000000	100.167846 
2736.000000	100.146484 
2734.000000	100.134277 
2732.000000	100.128936 
2730.000000	100.141906 
2728.000000	100.151824 
2726.000000	100.135803 
2724.000000	100.138092 
2722.000000	100.147247 
2720.000000	100.142669 
2718.000000	100.157165 
2716.000000	100.164794 
2714.000000	100.157165 
2712.000000	100.157165 
2710.000000	100.157165 
2708.000000	100.161743 
2706.000000	100.157165 
2704.000000	100.162506 
2702.000000	100.182342 
2700.000000	100.186157 
2698.000000	100.168609 
2696.000000	100.148773 
2694.000000	100.144958 
2692.000000	100.148773 
2690.000000	100.154113 
2688.000000	100.152587 
2686.000000	100.148773 
2684.000000	100.155639 
2682.000000	100.160217 
2680.000000	100.157928 
2678.000000	100.152587 
2676.000000	100.152587 
2674.000000	100.142669 
2672.000000	100.142669 
2670.000000	100.167846 
2668.000000	100.180053 
2666.000000	100.165557 
2664.000000	100.143432 
2662.000000	100.128936 
2660.000000	100.140380 
2658.000000	100.157165 
2656.000000	100.136566 
2654.000000	100.112915 
2652.000000	100.123596 
2650.000000	100.135040 
2648.000000	100.129699 
2646.000000	100.135040 
2644.000000	100.141906 
2642.000000	100.146484 
2640.000000	100.145721 
2638.000000	100.136566 
2636.000000	100.138854 
2634.000000	100.151824 
2632.000000	100.150299 
2630.000000	100.144195 
2628.000000	100.152587 
2626.000000	100.153350 
2624.000000	100.139617 
2622.000000	100.135040 
2620.000000	100.138854 
2618.000000	100.135803 
2616.000000	100.130462 
2614.000000	100.135040 
2612.000000	100.128936 
2610.000000	100.116729 
2608.000000	100.127410 
2606.000000	100.138092 
2604.000000	100.142669 
2602.000000	100.138854 
2600.000000	100.126647 
2598.000000	100.119018 
2596.000000	100.131225 
2594.000000	100.147247 
2592.000000	100.148773 
2590.000000	100.137329 
2588.000000	100.129699 
2586.000000	100.125885 
2584.000000	100.125122 
2582.000000	100.118255 
2580.000000	100.115203 
2578.000000	100.121307 
2576.000000	100.125122 
2574.000000	100.123596 
2572.000000	100.122070 
2570.000000	100.115203 
2568.000000	100.099945 
2566.000000	100.093078 
2564.000000	100.100708 
2562.000000	100.122833 
2560.000000	100.129699 
2558.000000	100.123596 
2556.000000	100.123596 
2554.000000	100.119781 
2552.000000	100.098419 
2550.000000	100.097656 
2548.000000	100.104522 
2546.000000	100.090789 
2544.000000	100.075531 
2542.000000	100.093078 
2540.000000	100.109100 
2538.000000	100.110626 
2536.000000	100.105285 
2534.000000	100.086212 
2532.000000	100.083923 
2530.000000	100.078582 
2528.000000	100.070190 
2526.000000	100.076293 
2524.000000	100.083923 
2522.000000	100.080108 
2520.000000	100.070953 
2518.000000	100.080108 
2516.000000	100.086975 
2514.000000	100.093841 
2512.000000	100.090789 
2510.000000	100.078582 
2508.000000	100.077819 
2506.000000	100.086975 
2504.000000	100.097656 
2502.000000	100.086975 
2500.000000	100.065612 
2498.000000	100.067138 
2496.000000	100.083160 
2494.000000	100.092315 
2492.000000	100.108337 
2490.000000	100.105285 
2488.000000	100.079345 
2486.000000	100.080871 
2484.000000	100.090789 
2482.000000	100.087738 
2480.000000	100.070953 
2478.000000	100.061798 
2476.000000	100.075531 
2474.000000	100.079345 
2472.000000	100.073242 
2470.000000	100.074005 
2468.000000	100.068664 
2466.000000	100.057220 
2464.000000	100.044250 
2462.000000	100.054931 
2460.000000	100.069427 
2458.000000	100.068664 
2456.000000	100.067901 
2454.000000	100.055694 
2452.000000	100.041198 
2450.000000	100.065612 
2448.000000	100.078582 
2446.000000	100.069427 
2444.000000	100.073242 
2442.000000	100.068664 
2440.000000	100.052642 
2438.000000	100.061035 
2436.000000	100.071716 
2434.000000	100.055694 
2432.000000	100.049591 
2430.000000	100.051879 
2428.000000	100.051116 
2426.000000	100.065612 
2424.000000	100.083160 
2422.000000	100.077819 
2420.000000	100.060272 
2418.000000	100.051116 
2416.000000	100.051879 
2414.000000	100.049591 
2412.000000	100.033569 
2410.000000	100.024414 
2408.000000	100.020599 
2406.000000	100.024414 
2404.000000	100.046539 
2402.000000	100.057983 
2400.000000	100.054931 
2398.000000	100.041198 
2396.000000	100.033569 
2394.000000	100.019836 
2392.000000	99.938964  
2390.000000	99.662017  
2388.000000	98.760986  
2386.000000	96.572113  
2384.000000	92.601013  
2382.000000	87.020111  
2380.000000	80.549621  
2378.000000	73.629760  
2376.000000	66.230010  
2374.000000	58.411407  
2372.000000	50.637054  
2370.000000	43.475341  
2368.000000	37.331390  
2366.000000	32.450103  
2364.000000	28.947448  
2362.000000	27.005004  
2360.000000	26.389312  
2358.000000	27.394866  
2356.000000	30.700683  
2354.000000	36.080169  
2352.000000	43.482971  
2350.000000	51.210784  
2348.000000	52.796173  
2346.000000	47.227478  
2344.000000	40.639495  
2342.000000	37.987518  
2340.000000	38.475799  
2338.000000	39.586639  
2336.000000	40.538024  
2334.000000	41.702270  
2332.000000	42.601776  
2330.000000	43.616485  
2328.000000	45.251464  
2326.000000	47.644805  
2324.000000	50.421905  
2322.000000	53.524780  
2320.000000	57.281494  
2318.000000	61.441040  
2316.000000	65.155029  
2314.000000	67.692565  
2312.000000	69.428253  
2310.000000	71.607971  
2308.000000	74.713134  
2306.000000	78.325653  
2304.000000	81.369018  
2302.000000	83.224487  
2300.000000	84.814453  
2298.000000	86.521911  
2296.000000	88.148498  
2294.000000	89.784240  
2292.000000	91.499328  
2290.000000	93.147277  
2288.000000	94.718170  
2286.000000	96.291351  
2284.000000	97.491455  
2282.000000	97.782897  
2280.000000	97.384643  
2278.000000	96.891784  
2276.000000	96.567535  
2274.000000	96.415710  
2272.000000	96.374511  
2270.000000	96.407318  
2268.000000	96.508026  
2266.000000	96.650695  
2264.000000	96.854400  
2262.000000	97.131347  
2260.000000	97.444915  
2258.000000	97.773742  
2256.000000	98.085021  
2254.000000	98.371124  
2252.000000	98.641967  
2250.000000	98.884582  
2248.000000	99.099731  
2246.000000	99.285125  
2244.000000	99.437713  
2242.000000	99.584960  
2240.000000	99.709320  
2238.000000	99.780273  
2236.000000	99.838256  
2234.000000	99.896240  
2232.000000	99.925994  
2230.000000	99.966430  
2228.000000	100.009918 
2226.000000	100.025939 
2224.000000	100.022888 
2222.000000	100.012969 
2220.000000	100.011444 
2218.000000	100.029754 
2216.000000	100.048065 
2214.000000	100.045013 
2212.000000	100.040435 
2210.000000	100.041961 
2208.000000	100.044250 
2206.000000	100.045776 
2204.000000	100.057220 
2202.000000	100.062561 
2200.000000	100.053405 
2198.000000	100.053405 
2196.000000	100.058746 
2194.000000	100.054168 
2192.000000	100.041198 
2190.000000	100.036621 
2188.000000	100.044250 
2186.000000	100.053405 
2184.000000	100.056457 
2182.000000	100.041198 
2180.000000	100.030517 
2178.000000	100.027465 
2176.000000	100.024414 
2174.000000	100.023651 
2172.000000	100.022888 
2170.000000	100.022888 
2168.000000	100.032806 
2166.000000	100.048065 
2164.000000	100.063323 
2162.000000	100.058746 
2160.000000	100.054168 
2158.000000	100.058746 
2156.000000	100.058746 
2154.000000	100.055694 
2152.000000	100.060272 
2150.000000	100.061798 
2148.000000	100.049591 
2146.000000	100.041961 
2144.000000	100.032806 
2142.000000	100.027465 
2140.000000	100.022888 
2138.000000	100.019836 
2136.000000	100.020599 
2134.000000	100.039672 
2132.000000	100.046539 
2130.000000	100.053405 
2128.000000	100.061035 
2126.000000	100.069427 
2124.000000	100.055694 
2122.000000	100.054931 
2120.000000	100.072479 
2118.000000	100.061798 
2116.000000	100.014495 
2114.000000	99.997711  
2112.000000	100.023651 
2110.000000	100.048065 
2108.000000	100.048828 
2106.000000	100.044250 
2104.000000	100.035858 
2102.000000	100.028991 
2100.000000	100.041198 
2098.000000	100.055694 
2096.000000	100.049591 
2094.000000	100.041198 
2092.000000	100.009918 
2090.000000	99.969482  
2088.000000	99.991607  
2086.000000	100.024414 
2084.000000	100.039672 
2082.000000	100.038909 
2080.000000	100.014495 
2078.000000	99.968719  
2076.000000	99.993896  
2074.000000	100.035858 
2072.000000	100.052642 
2070.000000	100.054931 
2068.000000	100.027465 
2066.000000	99.919128  
2064.000000	99.902343  
2062.000000	99.993133  
2060.000000	100.012207 
2058.000000	100.020599 
2056.000000	100.041198 
2054.000000	100.041198 
2052.000000	100.041961 
2050.000000	100.054168 
2048.000000	100.061035 
2046.000000	100.050354 
2044.000000	99.994659  
2042.000000	99.909973  
2040.000000	99.941253  
2038.000000	100.051116 
2036.000000	100.090026 
2034.000000	100.077819 
2032.000000	100.068664 
2030.000000	100.072479 
2028.000000	100.052642 
2026.000000	100.036621 
2024.000000	100.028991 
2022.000000	100.022888 
2020.000000	99.932861  
2018.000000	99.740600  
2016.000000	99.766540  
2014.000000	99.984741  
2012.000000	100.055694 
2010.000000	100.025177 
2008.000000	100.000762 
2006.000000	100.042724 
2004.000000	100.070953 
2002.000000	100.065612 
2000.000000	100.027465 
1998.000000	100.029754 
1996.000000	100.037384 
1994.000000	99.805450  
1992.000000	99.549865  
1990.000000	99.662017  
1988.000000	99.828338  
1986.000000	99.959564  
1984.000000	100.049591 
1982.000000	100.067901 
1980.000000	100.058746 
1978.000000	100.041198 
1976.000000	100.032806 
1974.000000	100.038146 
1972.000000	100.047302 
1970.000000	99.946594  
1968.000000	99.636840  
1966.000000	99.626922  
1964.000000	99.922943  
1962.000000	100.009155 
1960.000000	100.012207 
1958.000000	100.000000 
1956.000000	99.957275  
1954.000000	99.962615  
1952.000000	100.041198 
1950.000000	100.062561 
1948.000000	99.953460  
1946.000000	99.720001  
1944.000000	99.410247  
1942.000000	99.343109  
1940.000000	99.769592  
1938.000000	100.035858 
1936.000000	100.057983 
1934.000000	100.019836 
1932.000000	100.012969 
1930.000000	100.054931 
1928.000000	100.067138 
1926.000000	99.944305  
1924.000000	99.481201  
1922.000000	99.324035  
1920.000000	99.478912  
1918.000000	99.377441  
1916.000000	99.662017  
1914.000000	99.941253  
1912.000000	99.839019  
1910.000000	99.523925  
1908.000000	99.548339  
1906.000000	99.825286  
1904.000000	99.938201  
1902.000000	99.972534  
1900.000000	100.013732 
1898.000000	99.948120  
1896.000000	99.700927  
1894.000000	99.673461  
1892.000000	99.713897  
1890.000000	99.441528  
1888.000000	99.577331  
1886.000000	99.850463  
1884.000000	99.892425  
1882.000000	99.974822  
1880.000000	100.011444 
1878.000000	100.009155 
1876.000000	100.016021 
1874.000000	99.983215  
1872.000000	99.678802  
1870.000000	98.750305  
1868.000000	98.203277  
1866.000000	99.044799  
1864.000000	99.760437  
1862.000000	99.889373  
1860.000000	99.846649  
1858.000000	99.870300  
1856.000000	99.974060  
1854.000000	100.019836 
1852.000000	100.006866 
1850.000000	99.806976  
1848.000000	99.329376  
1846.000000	98.725891  
1844.000000	98.391723  
1842.000000	99.137115  
1840.000000	99.714660  
1838.000000	99.645233  
1836.000000	99.633026  
1834.000000	99.764251  
1832.000000	99.324798  
1830.000000	98.503112  
1828.000000	98.726654  
1826.000000	99.024200  
1824.000000	99.168395  
1822.000000	99.643707  
1820.000000	99.887084  
1818.000000	99.853515  
1816.000000	99.878692  
1814.000000	99.768829  
1812.000000	99.276733  
1810.000000	99.133300  
1808.000000	99.456024  
1806.000000	99.688720  
1804.000000	99.555206  
1802.000000	99.004364  
1800.000000	98.750305  
1798.000000	98.937988  
1796.000000	98.801422  
1794.000000	98.331451  
1792.000000	97.856140  
1790.000000	98.744964  
1788.000000	99.581146  
1786.000000	99.582672  
1784.000000	99.389648  
1782.000000	99.163055  
1780.000000	98.971557  
1778.000000	99.205017  
1776.000000	99.031066  
1774.000000	98.070526  
1772.000000	97.207641  
1770.000000	97.953796  
1768.000000	98.796844  
1766.000000	99.402618  
1764.000000	99.328613  
1762.000000	98.729705  
1760.000000	98.837280  
1758.000000	98.867797  
1756.000000	98.975372  
1754.000000	99.163055  
1752.000000	98.358917  
1750.000000	97.106170  
1748.000000	96.898651  
1746.000000	97.595977  
1744.000000	97.934722  
1742.000000	98.140716  
1740.000000	98.061370  
1738.000000	98.222351  
1736.000000	97.975921  
1734.000000	96.673583  
1732.000000	97.222900  
1730.000000	98.239898  
1728.000000	99.202728  
1726.000000	99.565124  
1724.000000	99.314880  
1722.000000	99.114227  
1720.000000	98.468780  
1718.000000	96.489715  
1716.000000	95.742797  
1714.000000	97.418975  
1712.000000	98.636627  
1710.000000	98.914337  
1708.000000	98.445892  
1706.000000	97.440338  
1704.000000	97.294616  
1702.000000	97.190856  
1700.000000	96.166992  
1698.000000	95.727539  
1696.000000	96.295166  
1694.000000	98.168945  
1692.000000	98.810577  
1690.000000	98.278045  
1688.000000	97.739410  
1686.000000	97.000885  
1684.000000	95.582580  
1682.000000	96.784210  
1680.000000	97.844696  
1678.000000	98.439788  
1676.000000	98.162841  
1674.000000	97.850799  
1672.000000	97.594451  
1670.000000	96.782684  
1668.000000	97.816467  
1666.000000	98.952484  
1664.000000	98.654174  
1662.000000	98.270416  
1660.000000	99.000549  
1658.000000	99.121093  
1656.000000	98.158264  
1654.000000	96.005249  
1652.000000	96.305084  
1650.000000	97.264862  
1648.000000	96.172332  
1646.000000	96.341705  
1644.000000	98.357391  
1642.000000	99.035644  
1640.000000	98.863983  
1638.000000	97.814178  
1636.000000	96.485137  
1634.000000	98.036956  
1632.000000	99.207305  
1630.000000	99.251556  
1628.000000	98.748779  
1626.000000	98.590850  
1624.000000	98.076629  
1622.000000	98.218536  
1620.000000	98.828887  
1618.000000	98.207855  
1616.000000	97.819519  
1614.000000	98.988342  
1612.000000	99.460601  
1610.000000	99.173736  
1608.000000	99.005889  
1606.000000	99.285125  
1604.000000	99.356079  
1602.000000	99.334716  
1600.000000	99.598693  
1598.000000	99.684143  
1596.000000	99.414825  
1594.000000	99.350738  
1592.000000	99.521636  
1590.000000	99.588012  
1588.000000	99.736022  
1586.000000	99.815368  
1584.000000	99.781036  
1582.000000	99.705505  
1580.000000	99.429321  
1578.000000	98.365783  
1576.000000	97.275543  
1574.000000	98.390197  
1572.000000	98.742675  
1570.000000	97.885131  
1568.000000	98.097991  
1566.000000	98.573303  
1564.000000	98.441314  
1562.000000	98.085784  
1560.000000	96.156311  
1558.000000	94.512939  
1556.000000	96.272277  
1554.000000	97.357940  
1552.000000	98.003387  
1550.000000	98.056793  
1548.000000	98.377990  
1546.000000	97.717285  
1544.000000	95.642089  
1542.000000	93.654632  
1540.000000	93.157958  
1538.000000	96.523284  
1536.000000	97.556304  
1534.000000	96.896362  
1532.000000	97.428894  
1530.000000	98.128509  
1528.000000	97.431182  
1526.000000	96.463775  
1524.000000	95.951843  
1522.000000	94.865417  
1520.000000	95.547485  
1518.000000	96.156311  
1516.000000	96.462249  
1514.000000	97.643280  
1512.000000	97.674560  
1510.000000	96.425628  
1508.000000	93.906402  
1506.000000	94.808197  
1504.000000	97.791290  
1502.000000	98.498535  
1500.000000	98.192596  
1498.000000	97.417449  
1496.000000	97.721099  
1494.000000	98.782348  
1492.000000	98.338317  
1490.000000	96.682739  
1488.000000	96.966552  
1486.000000	98.523712  
1484.000000	99.350738  
1482.000000	99.272918  
1480.000000	99.285888  
1478.000000	99.104309  
1476.000000	98.116302  
1474.000000	96.811676  
1472.000000	96.827697  
1470.000000	98.722839  
1468.000000	99.285125  
1466.000000	98.720550  
1464.000000	98.554992  
1462.000000	99.085235  
1460.000000	98.301696  
1458.000000	95.873260  
1456.000000	96.147918  
1454.000000	98.232269  
1452.000000	99.099731  
1450.000000	99.177551  
1448.000000	98.921966  
1446.000000	99.288177  
1444.000000	99.741363  
1442.000000	99.841308  
1440.000000	99.630737  
1438.000000	98.807525  
1436.000000	98.208618  
1434.000000	98.857879  
1432.000000	99.050903  
1430.000000	98.886871  
1428.000000	99.269104  
1426.000000	99.364471  
1424.000000	98.896026  
1422.000000	98.867797  
1420.000000	98.220062  
1418.000000	97.761535  
1416.000000	98.864746  
1414.000000	99.568176  
1412.000000	99.573516  
1410.000000	99.593353  
1408.000000	99.700164  
1406.000000	99.342346  
1404.000000	99.241638  
1402.000000	99.520111  
1400.000000	99.001312  
1398.000000	98.328399  
1396.000000	98.127746  
1394.000000	98.549652  
1392.000000	99.426269  
1390.000000	99.530792  
1388.000000	98.943328  
1386.000000	99.050140  
1384.000000	99.700927  
1382.000000	99.851226  
1380.000000	99.680328  
1378.000000	99.536895  
1376.000000	99.066162  
1374.000000	98.649597  
1372.000000	99.273681  
1370.000000	99.543762  
1368.000000	99.559020  
1366.000000	99.682617  
1364.000000	99.118041  
1362.000000	98.712921  
1360.000000	99.378204  
1358.000000	99.755859  
1356.000000	99.729919  
1354.000000	99.745941  
1352.000000	99.878692  
1350.000000	99.842071  
1348.000000	99.852752  
1346.000000	99.951171  
1344.000000	99.956512  
1342.000000	99.508666  
1340.000000	98.609924  
1338.000000	98.680114  
1336.000000	99.467468  
1334.000000	99.884796  
1332.000000	99.967193  
1330.000000	99.948883  
1328.000000	99.941253  
1326.000000	99.951171  
1324.000000	99.945068  
1322.000000	99.819946  
1320.000000	99.493408  
1318.000000	99.391937  
1316.000000	99.548339  
1314.000000	99.546051  
1312.000000	99.668121  
1310.000000	99.897003  
1308.000000	99.913787  
1306.000000	99.946594  
1304.000000	99.993896  
1302.000000	100.007629 
1300.000000	99.996185  
1298.000000	99.974822  
1296.000000	99.967193  
1294.000000	99.999237  
1292.000000	99.988555  
1290.000000	99.903106  
1288.000000	99.817657  
1286.000000	99.890899  
1284.000000	100.006866 
1282.000000	100.020599 
1280.000000	99.983978  
1278.000000	99.995422  
1276.000000	100.026702 
1274.000000	99.957275  
1272.000000	99.819183  
1270.000000	99.810028  
1268.000000	99.881744  
1266.000000	99.926757  
1264.000000	99.968719  
1262.000000	99.934387  
1260.000000	99.877166  
1258.000000	99.944305  
1256.000000	99.988555  
1254.000000	99.987792  
1252.000000	100.002288 
1250.000000	100.019836 
1248.000000	100.005340 
1246.000000	99.987792  
1244.000000	99.991607  
1242.000000	100.022888 
1240.000000	100.033569 
1238.000000	100.031280 
1236.000000	100.032043 
1234.000000	100.025939 
1232.000000	100.022125 
1230.000000	100.028228 
1228.000000	100.030517 
1226.000000	100.000000 
1224.000000	99.991607  
1222.000000	100.030517 
1220.000000	100.051116 
1218.000000	100.041198 
1216.000000	100.026702 
1214.000000	100.014495 
1212.000000	100.006103 
1210.000000	100.024414 
1208.000000	100.051116 
1206.000000	100.058746 
1204.000000	100.047302 
1202.000000	100.037384 
1200.000000	100.026702 
1198.000000	100.025177 
1196.000000	100.047302 
1194.000000	100.057220 
1192.000000	100.057220 
1190.000000	100.054168 
1188.000000	100.030517 
1186.000000	100.018310 
1184.000000	100.044250 
1182.000000	100.069427 
1180.000000	100.063323 
1178.000000	100.045013 
1176.000000	100.027465 
1174.000000	100.009155 
1172.000000	100.026702 
1170.000000	100.074005 
1168.000000	100.090026 
1166.000000	100.074768 
1164.000000	100.061798 
1162.000000	100.059509 
1160.000000	100.057220 
1158.000000	100.048828 
1156.000000	100.038146 
1154.000000	100.058746 
1152.000000	100.069427 
1150.000000	100.064086 
1148.000000	100.070953 
1146.000000	100.057220 
1144.000000	100.038909 
1142.000000	100.035095 
1140.000000	100.046539 
1138.000000	100.047302 
1136.000000	100.013732 
1134.000000	100.001525 
1132.000000	100.045776 
1130.000000	100.083923 
1128.000000	100.102996 
1126.000000	100.088500 
1124.000000	100.030517 
1122.000000	99.995422  
1120.000000	99.994659  
1118.000000	100.010681 
1116.000000	100.037384 
1114.000000	100.066375 
1112.000000	100.097656 
1110.000000	100.090026 
1108.000000	100.063323 
1106.000000	100.043487 
1104.000000	100.028228 
1102.000000	100.059509 
1100.000000	100.049591 
1098.000000	100.012969 
1096.000000	100.006866 
1094.000000	100.014495 
1092.000000	100.032806 
1090.000000	100.052642 
1088.000000	100.064849 
1086.000000	100.058746 
1084.000000	100.054931 
1082.000000	100.049591 
1080.000000	100.063323 
1078.000000	100.098419 
1076.000000	100.111389 
1074.000000	100.070953 
1072.000000	100.014495 
1070.000000	99.992370  
1068.000000	100.016021 
1066.000000	100.035095 
1064.000000	100.031280 
1062.000000	100.027465 
1060.000000	100.028228 
1058.000000	100.020599 
1056.000000	100.015258 
1054.000000	100.035095 
1052.000000	100.080108 
1050.000000	100.091552 
1048.000000	100.052642 
1046.000000	100.032806 
1044.000000	100.012207 
1042.000000	100.000762 
1040.000000	100.021362 
1038.000000	100.053405 
1036.000000	100.058746 
1034.000000	100.065612 
1032.000000	100.069427 
1030.000000	100.070953 
1028.000000	100.067901 
1026.000000	100.066375 
1024.000000	100.053405 
1022.000000	100.042724 
1020.000000	100.043487 
1018.000000	100.058746 
1016.000000	100.077056 
1014.000000	100.067901 
1012.000000	100.044250 
1010.000000	100.031280 
1008.000000	100.035858 
1006.000000	100.048828 
1004.000000	100.061798 
1002.000000	100.088500 
1000.000000	100.091552 
998.000000	 100.066375 
996.000000	 100.052642 
994.000000	 100.048065 
992.000000	 100.041961 
990.000000	 100.061798 
988.000000	 100.079345 
986.000000	 100.060272 
984.000000	 100.052642 
982.000000	 100.051879 
980.000000	 100.062561 
978.000000	 100.078582 
976.000000	 100.074768 
974.000000	 100.062561 
972.000000	 100.086975 
970.000000	 100.108337 
968.000000	 100.094604 
966.000000	 100.068664 
964.000000	 100.067901 
962.000000	 100.080871 
960.000000	 100.081634 
958.000000	 100.051879 
956.000000	 100.038146 
954.000000	 100.054931 
952.000000	 100.061035 
950.000000	 100.064086 
948.000000	 100.058746 
946.000000	 100.054931 
944.000000	 100.059509 
942.000000	 100.068664 
940.000000	 100.083923 
938.000000	 100.080871 
936.000000	 100.077819 
934.000000	 100.092315 
932.000000	 100.097656 
930.000000	 100.063323 
928.000000	 100.050354 
926.000000	 100.074005 
924.000000	 100.092315 
922.000000	 100.102233 
920.000000	 100.091552 
918.000000	 100.063323 
916.000000	 100.017547 
914.000000	 100.028228 
912.000000	 100.067901 
910.000000	 100.072479 
908.000000	 100.094604 
906.000000	 100.103759 
904.000000	 100.083160 
902.000000	 100.084686 
900.000000	 100.105285 
898.000000	 100.108337 
896.000000	 100.081634 
894.000000	 100.074768 
892.000000	 100.095367 
890.000000	 100.092315 
888.000000	 100.065612 
886.000000	 100.054931 
884.000000	 100.077056 
882.000000	 100.079345 
880.000000	 100.093078 
878.000000	 100.110626 
876.000000	 100.080871 
874.000000	 100.059509 
872.000000	 100.054168 
870.000000	 100.057220 
868.000000	 100.054931 
866.000000	 100.021362 
864.000000	 100.036621 
862.000000	 100.080871 
860.000000	 100.108337 
858.000000	 100.105285 
856.000000	 100.095367 
854.000000	 100.093841 
852.000000	 100.045776 
850.000000	 100.045013 
848.000000	 100.109863 
846.000000	 100.135803 
844.000000	 100.138092 
842.000000	 100.150299 
840.000000	 100.142669 
838.000000	 100.069427 
836.000000	 100.013732 
834.000000	 100.041198 
832.000000	 100.067138 
830.000000	 100.057983 
828.000000	 100.051116 
826.000000	 100.129699 
824.000000	 100.157165 
822.000000	 100.104522 
820.000000	 100.085449 
818.000000	 100.097656 
816.000000	 100.092315 
814.000000	 100.113677 
812.000000	 100.115966 
810.000000	 100.064086 
808.000000	 100.009155 
806.000000	 100.037384 
804.000000	 100.048065 
802.000000	 100.030517 
800.000000	 100.026702 
798.000000	 100.025939 
796.000000	 100.056457 
794.000000	 100.038146 
792.000000	 100.006866 
790.000000	 100.009918 
788.000000	 100.015258 
786.000000	 99.980926  
784.000000	 99.952697  
782.000000	 100.013732 
780.000000	 100.055694 
778.000000	 100.025939 
776.000000	 100.029754 
774.000000	 100.057220 
772.000000	 100.057220 
770.000000	 100.020599 
768.000000	 100.004577 
766.000000	 100.030517 
764.000000	 100.048065 
762.000000	 100.048828 
760.000000	 100.032806 
758.000000	 99.996185  
756.000000	 99.977874  
754.000000	 99.987030  
752.000000	 99.954986  
750.000000	 99.916839  
748.000000	 99.864959  
746.000000	 99.826049  
744.000000	 99.755096  
742.000000	 99.628448  
740.000000	 99.582672  
738.000000	 99.671173  
736.000000	 99.729156  
734.000000	 99.716949  
732.000000	 99.673461  
730.000000	 99.642181  
728.000000	 99.685668  
726.000000	 99.784851  
724.000000	 99.781036  
722.000000	 98.007965  
720.000000	 96.403503  
718.000000	 98.194122  
716.000000	 99.504852  
714.000000	 99.479675  
712.000000	 99.224090  
710.000000	 98.957824  
708.000000	 98.557281  
706.000000	 98.097229  
704.000000	 97.503662  
702.000000	 96.778869  
700.000000	 95.860290  
698.000000	 94.800567  
696.000000	 93.643951  
694.000000	 92.488861  
692.000000	 91.304016  
690.000000	 90.120697  
688.000000	 89.107513  
686.000000	 88.294982  
684.000000	 87.445068  
682.000000	 86.692810  
680.000000	 86.252593  
678.000000	 86.206817  
676.000000	 86.591339  
674.000000	 87.534332  
672.000000	 86.280822  
670.000000	 77.675628  
668.000000	 75.087738  
666.000000	 89.432525  
664.000000	 92.588806  
662.000000	 90.985870  
660.000000	 89.647674  
658.000000	 88.813018  
656.000000	 88.362884  
654.000000	 88.357543  
652.000000	 88.506317  
650.000000	 88.165283  
648.000000	 88.847351  
646.000000	 91.075897  
644.000000	 92.691040  
642.000000	 93.827056  
640.000000	 94.900512  
638.000000	 95.845794  
636.000000	 96.678924  
634.000000	 97.456359  
632.000000	 98.137664  
630.000000	 98.618316  
628.000000	 98.947143  
626.000000	 99.200439  
624.000000	 99.397277  
622.000000	 99.563598  
620.000000	 98.645782  
618.000000	 96.761322  
616.000000	 97.664642  
614.000000	 99.455261  
612.000000	 99.719238  
610.000000	 99.726867  
608.000000	 99.790954  
606.000000	 99.830627  
604.000000	 99.817657  
602.000000	 99.727630  
600.000000	 99.551391  
598.000000	 99.575805  
596.000000	 99.666595  
594.000000	 99.694824  
592.000000	 99.526214  
590.000000	 99.695587  
588.000000	 99.894714  
586.000000	 99.914550  
584.000000	 99.929809  
582.000000	 99.864959  
580.000000	 99.781799  
578.000000	 99.792480  
576.000000	 99.793243  
574.000000	 99.975585  
572.000000	 100.096130 
570.000000	 99.959564  
568.000000	 99.850463  
566.000000	 99.923706  
564.000000	 100.036621 
562.000000	 100.080871 
560.000000	 100.067901 
558.000000	 100.090789 
556.000000	 100.129699 
554.000000	 100.121307 
552.000000	 100.035095 
550.000000	 99.898529  
548.000000	 99.796295  
546.000000	 99.797058  
544.000000	 99.938201  
542.000000	 99.997711  
540.000000	 100.020599 
538.000000	 100.012969 
536.000000	 99.903106  
534.000000	 99.911499  
532.000000	 100.046539 
530.000000	 99.991607  
528.000000	 99.750518  
526.000000	 99.645996  
524.000000	 100.020599 
522.000000	 100.060272 
520.000000	 99.621582  
518.000000	 99.308776  
516.000000	 99.531555  
514.000000	 99.919891  
512.000000	 100.027465 
510.000000	 99.760437  
508.000000	 99.387359  
506.000000	 99.506378  
504.000000	 99.556732  
502.000000	 99.469757  
500.000000	 99.814605  
498.000000	 99.976348  
496.000000	 99.982452  
494.000000	 99.898529  
492.000000	 99.796295  
490.000000	 99.900817  
488.000000	 99.914550  
486.000000	 99.646759  
484.000000	 99.600982  
482.000000	 99.908447  
480.000000	 99.819946  
478.000000	 99.521636  
476.000000	 99.580383  
474.000000	 99.216461  
472.000000	 98.704528  
470.000000	 99.334716  
468.000000	 99.826049  
466.000000	 99.954986  
464.000000	 99.825286  
462.000000	 99.545288  
460.000000	 99.156188  
458.000000	 98.574066  
456.000000	 98.796844  
454.000000	 99.418640  
452.000000	 99.936676  
450.000000	 100.090789 
448.000000	 99.819183  
446.000000	 99.846649  
444.000000	 99.546813  
442.000000	 99.087524  
440.000000	 99.716949  
438.000000	 99.981689  
436.000000	 99.597167  
434.000000	 99.429321  
432.000000	 99.218750  
430.000000	 99.039459  
428.000000	 99.179840  
426.000000	 98.702239  
424.000000	 98.797607  
422.000000	 99.049377  
420.000000	 97.122955  
418.000000	 97.284698  
416.000000	 99.170684  
414.000000	 99.385070  
412.000000	 100.258636 
410.000000	 100.460815 
408.000000	 100.283050 
406.000000	 100.827789 
404.000000	 100.702667 
402.000000	 99.479675  
400.000000	 97.087097  

